Ljusdesign AB
3
0
4
90
37
2.5

Gizmo 3000K 95 CRI 3V 700mA (Lens E+)

Gizmo 3000K 95 CRI 3V 700mA (Lens E+).ldt
3/10/2025 - Viso  - serial: n/a sensor serial: n/a
20
0
32
20
0
0
0
0
0
100.0
100
1.0
0.0
1
1

129
3000
95
2.10
1.0
1.0
1.0
1.0
1.0
1.0
1.0
1.0
1.0
1.0
0
90
180
270
0
2.5
5
7.5
10
12.5
15
17.5
20
22.5
25
27.5
30
32.5
35
37.5
40
42.5
45
47.5
50
52.5
55
57.5
60
62.5
65
67.5
70
72.5
75
77.5
80
82.5
85
87.5
90
2724.556383
2614.455349
2348.070721
1955.481951
1516.417038
1108.221128
774.375324
530.043728
362.600341
247.011392
169.137807
125.345201
101.694321
86.742438
76.155197
68.239212
61.292552
53.397874
44.323711
34.729776
26.011186
20.550347
17.334367
14.50579
11.88169
9.466949
7.47956
5.615675
3.285979
1.89603
1.76643
1.740728
1.499918
1.364918
1.347533
1.167538
1.344731
2724.556383
2718.978527
2634.324658
2501.577924
2337.326168
2127.690278
1879.66706
1626.803849
1376.013586
1141.133626
909.263493
699.212836
524.465103
375.43112
259.750987
173.827637
113.972235
76.049465
51.467648
35.868841
26.016703
20.203169
16.509239
13.922558
12.019984
10.311748
8.761088
6.878581
4.518511
2.651864
1.787729
1.468344
1.427962
1.432211
1.493458
1.450637
1.397811
2724.556383
2606.12334
2341.045054
1953.409239
1515.503166
1119.170196
805.032774
566.187836
384.941515
248.613077
158.19758
110.325673
86.134511
71.235583
60.901634
53.452728
47.479282
41.278743
34.649272
27.904856
21.216636
16.424806
13.589595
11.601877
9.794006
8.023827
6.317902
4.658626
3.189696
2.015565
1.749447
1.781709
1.555207
1.571428
1.74363
1.934741
0
2724.556383
2704.501366
2613.541004
2492.292537
2328.749782
2127.918805
1893.467156
1635.104157
1376.109515
1114.867454
868.757677
661.802898
481.22956
340.960628
236.534222
161.264553
108.594155
73.640136
51.132938
35.858461
26.426145
20.700649
16.90046
13.888356
11.607086
9.678859
7.393946
4.79385
2.856328
1.796688
1.439025
1.416228
1.458
1.425782
1.327473
0
0